;PC Software:StarLab Version 3.30 Build 10
! ******* Warning: Do not modify this file. Changes may prevent   ********
! ******* the StarLab Log reader from opening the file correctly. ********
;Logged:22/03/2021 at 17:10:15
;File Version:5
;Time Resolution:1 microseconds
;Log Settings:Stop after:period: 00:03:00
;Graph Mode:Split
;Notes:                                                            

;Channel A:Vega Thermopile 3A (s/n:940606)  VG2.52 (s/n:946462)
;Channel B:Vega Thermopile 3A (s/n:947746)  VG2.52 (s/n:946463)

;Channel A:Details
;Name:3A
;Graph Type:Line
;Graph Color:RGB(14,104,168)
;Units:W
;Settings:Measuring:Power
;Settings:Wavelength:532
;Settings:Range:AUTO

;Channel B:Details
;Name:3A
;Graph Type:Line
;Graph Color:RGB(245,86,16)
;Units:W
;Settings:Measuring:Power
;Settings:Wavelength:532
;Settings:Range:AUTO

;Channel A:Statistics
;Min:86.80mW             
;Max:87.20mW             
;Average:87.05mW             
;Std.Dev.:73.16uW             
;Overrange:0                   

;Channel B:Statistics
;Min:15.10uW             
;Max:172.7uW             
;Average:38.02uW             
;Std.Dev.:34.67uW             
;Overrange:0                   
;--------------------


;First Pulse Arrived : 22/03/2021 at 17:10:15.609000
  Timestamp   	  Channel A  	  Channel B  	
         0.000	             	  1.560e-005 	
         0.033	  8.710e-002 	             	
         0.065	             	  1.550e-005 	
         0.097	  8.710e-002 	             	
         0.129	             	  1.540e-005 	
         0.161	  8.710e-002 	             	
         0.193	             	  1.540e-005 	
         0.225	  8.710e-002 	             	
         0.257	             	  1.540e-005 	
         0.289	  8.710e-002 	             	
         0.321	             	  1.540e-005 	
         0.353	  8.710e-002 	             	
         0.385	             	  1.550e-005 	
         0.417	  8.710e-002 	             	
         0.449	             	  1.550e-005 	
         0.513	  8.710e-002 	  1.560e-005 	
         0.577	  8.710e-002 	  1.570e-005 	
         0.641	  8.710e-002 	             	
         0.673	             	  1.580e-005 	
         0.705	  8.710e-002 	             	
         0.737	             	  1.590e-005 	
         0.769	  8.710e-002 	             	
         0.801	             	  1.600e-005 	
         0.832	  8.710e-002 	             	
         0.864	             	  1.620e-005 	
         0.896	  8.710e-002 	             	
         0.928	             	  1.630e-005 	
         0.961	  8.710e-002 	             	
         0.993	             	  1.650e-005 	
         1.025	  8.710e-002 	             	
         1.057	             	  1.670e-005 	
         1.089	  8.710e-002 	             	
         1.121	             	  1.690e-005 	
         1.153	  8.710e-002 	             	
         1.184	             	  1.710e-005 	
         1.217	  8.710e-002 	             	
         1.249	             	  1.740e-005 	
         1.313	  8.710e-002 	  1.760e-005 	
         1.376	  8.710e-002 	  1.770e-005 	
         1.441	  8.710e-002 	             	
         1.473	             	  1.790e-005 	
         1.505	  8.710e-002 	             	
         1.537	             	  1.800e-005 	
         1.569	  8.710e-002 	             	
         1.600	             	  1.810e-005 	
         1.632	  8.700e-002 	             	
         1.665	             	  1.820e-005 	
         1.697	  8.700e-002 	             	
         1.729	             	  1.820e-005 	
         1.761	  8.700e-002 	             	
         1.793	             	  1.820e-005 	
         1.825	  8.700e-002 	             	
         1.857	             	  1.820e-005 	
         1.889	  8.700e-002 	             	
         1.921	             	  1.810e-005 	
         1.953	  8.700e-002 	             	
         1.985	             	  1.800e-005 	
         2.017	  8.700e-002 	             	
         2.049	             	  1.790e-005 	
         2.113	  8.700e-002 	  1.780e-005 	
         2.177	  8.700e-002 	  1.780e-005 	
         2.241	  8.700e-002 	             	
         2.273	             	  1.770e-005 	
         2.305	  8.710e-002 	             	
         2.337	             	  1.760e-005 	
         2.369	  8.710e-002 	             	
         2.400	             	  1.760e-005 	
         2.432	  8.710e-002 	             	
         2.465	             	  1.750e-005 	
         2.497	  8.710e-002 	             	
         2.529	             	  1.750e-005 	
         2.561	  8.710e-002 	             	
         2.593	             	  1.750e-005 	
         2.625	  8.710e-002 	             	
         2.657	             	  1.750e-005 	
         2.689	  8.710e-002 	             	
         2.721	             	  1.750e-005 	
         2.753	  8.710e-002 	             	
         2.785	             	  1.750e-005 	
         2.816	  8.710e-002 	             	
         2.849	             	  1.760e-005 	
         2.913	  8.710e-002 	  1.770e-005 	
         2.976	  8.710e-002 	  1.770e-005 	
         3.041	  8.710e-002 	             	
         3.073	             	  1.780e-005 	
         3.105	  8.710e-002 	             	
         3.137	             	  1.790e-005 	
         3.168	  8.710e-002 	             	
         3.200	             	  1.810e-005 	
         3.233	  8.710e-002 	             	
         3.265	             	  1.830e-005 	
         3.297	  8.710e-002 	             	
         3.329	             	  1.840e-005 	
         3.361	  8.710e-002 	             	
         3.393	             	  1.850e-005 	
         3.425	  8.710e-002 	             	
         3.456	             	  1.860e-005 	
         3.489	  8.710e-002 	             	
         3.521	             	  1.870e-005 	
         3.553	  8.710e-002 	             	
         3.585	             	  1.870e-005 	
         3.617	  8.710e-002 	             	
         3.648	             	  1.870e-005 	
         3.713	  8.710e-002 	  1.870e-005 	
         3.777	  8.710e-002 	  1.870e-005 	
         3.840	  8.710e-002 	             	
         3.872	             	  1.870e-005 	
         3.904	  8.710e-002 	             	
         3.936	             	  1.860e-005 	
         3.969	  8.700e-002 	             	
         4.001	             	  1.850e-005 	
         4.032	  8.700e-002 	             	
         4.066	             	  1.840e-005 	
         4.097	  8.700e-002 	             	
         4.129	             	  1.840e-005 	
         4.161	  8.700e-002 	             	
         4.192	             	  1.840e-005 	
         4.225	  8.700e-002 	             	
         4.256	             	  1.830e-005 	
         4.289	  8.700e-002 	             	
         4.321	             	  1.830e-005 	
         4.353	  8.700e-002 	             	
         4.384	             	  1.820e-005 	
         4.417	  8.700e-002 	             	
         4.449	             	  1.810e-005 	
         4.513	  8.700e-002 	  1.800e-005 	
         4.576	  8.700e-002 	  1.780e-005 	
         4.641	  8.700e-002 	             	
         4.673	             	  1.750e-005 	
         4.705	  8.700e-002 	             	
         4.737	             	  1.730e-005 	
         4.769	  8.700e-002 	             	
         4.801	             	  1.700e-005 	
         4.832	  8.710e-002 	             	
         4.865	             	  1.680e-005 	
         4.897	  8.710e-002 	             	
         4.929	             	  1.650e-005 	
         4.961	  8.710e-002 	             	
         4.993	             	  1.630e-005 	
         5.024	  8.710e-002 	             	
         5.057	             	  1.610e-005 	
         5.089	  8.710e-002 	             	
         5.121	             	  1.590e-005 	
         5.153	  8.710e-002 	             	
         5.185	             	  1.580e-005 	
         5.216	  8.710e-002 	             	
         5.249	             	  1.580e-005 	
         5.313	  8.710e-002 	  1.580e-005 	
         5.377	  8.710e-002 	  1.600e-005 	
         5.441	  8.710e-002 	             	
         5.473	             	  1.610e-005 	
         5.505	  8.710e-002 	             	
         5.537	             	  1.630e-005 	
         5.569	  8.710e-002 	             	
         5.601	             	  1.640e-005 	
         5.633	  8.710e-002 	             	
         5.665	             	  1.660e-005 	
         5.697	  8.710e-002 	             	
         5.729	             	  1.660e-005 	
         5.761	  8.710e-002 	             	
         5.792	             	  1.660e-005 	
         5.825	  8.710e-002 	             	
         5.857	             	  1.650e-005 	
         5.888	  8.710e-002 	             	
         5.921	             	  1.630e-005 	
         5.953	  8.710e-002 	             	
         5.985	             	  1.620e-005 	
         6.017	  8.710e-002 	             	
         6.048	             	  1.600e-005 	
         6.113	  8.710e-002 	  1.580e-005 	
         6.177	  8.710e-002 	  1.560e-005 	
         6.241	  8.710e-002 	             	
         6.273	             	  1.540e-005 	
         6.305	  8.700e-002 	             	
         6.336	             	  1.530e-005 	
         6.369	  8.700e-002 	             	
         6.401	             	  1.520e-005 	
         6.433	  8.700e-002 	             	
         6.465	             	  1.510e-005 	
         6.497	  8.700e-002 	             	
         6.529	             	  1.510e-005 	
         6.561	  8.700e-002 	             	
         6.593	             	  1.510e-005 	
         6.625	  8.700e-002 	             	
         6.657	             	  1.510e-005 	
         6.689	  8.700e-002 	             	
         6.721	             	  1.520e-005 	
         6.753	  8.700e-002 	             	
         6.785	             	  1.530e-005 	
         6.817	  8.710e-002 	             	
         6.849	             	  1.540e-005 	
         6.912	  8.710e-002 	  1.550e-005 	
         6.977	  8.710e-002 	  1.570e-005 	
         7.041	  8.710e-002 	             	
         7.073	             	  1.590e-005 	
         7.105	  8.710e-002 	             	
         7.137	             	  1.610e-005 	
         7.169	  8.710e-002 	             	
         7.201	             	  1.630e-005 	
         7.233	  8.710e-002 	             	
         7.265	             	  1.640e-005 	
         7.296	  8.710e-002 	             	
         7.329	             	  1.660e-005 	
         7.361	  8.710e-002 	             	
         7.393	             	  1.680e-005 	
         7.425	  8.710e-002 	             	
         7.457	             	  1.690e-005 	
         7.489	  8.710e-002 	             	
         7.521	             	  1.700e-005 	
         7.553	  8.710e-002 	             	
         7.585	             	  1.710e-005 	
         7.617	  8.710e-002 	             	
         7.649	             	  1.720e-005 	
         7.713	  8.720e-002 	  1.730e-005 	
         7.777	  8.720e-002 	  1.730e-005 	
         7.841	  8.710e-002 	             	
         7.873	             	  1.730e-005 	
         7.905	  8.710e-002 	             	
         7.937	             	  1.740e-005 	
         7.969	  8.710e-002 	             	
         8.001	             	  1.730e-005 	
         8.033	  8.710e-002 	             	
         8.064	             	  1.740e-005 	
         8.097	  8.720e-002 	             	
         8.129	             	  1.740e-005 	
         8.161	  8.720e-002 	             	
         8.193	             	  1.730e-005 	
         8.225	  8.720e-002 	             	
         8.257	             	  1.730e-005 	
         8.289	  8.720e-002 	             	
         8.321	             	  1.740e-005 	
         8.353	  8.710e-002 	             	
         8.385	             	  1.740e-005 	
         8.417	  8.710e-002 	             	
         8.449	             	  1.740e-005 	
         8.481	  8.710e-002 	             	
         8.513	             	  1.740e-005 	
         8.577	  8.710e-002 	  1.740e-005 	
         8.641	  8.710e-002 	             	
         8.673	             	  1.740e-005 	
         8.705	  8.710e-002 	             	
         8.737	             	  1.730e-005 	
         8.769	  8.710e-002 	             	
         8.801	             	  1.720e-005 	
         8.832	  8.710e-002 	             	
         8.864	             	  1.710e-005 	
         8.897	  8.710e-002 	             	
         8.929	             	  1.710e-005 	
         8.961	  8.700e-002 	             	
         8.993	             	  1.700e-005 	
         9.025	  8.700e-002 	             	
         9.057	             	  1.700e-005 	
         9.088	  8.700e-002 	             	
         9.121	             	  1.710e-005 	
         9.153	  8.700e-002 	             	
         9.185	             	  1.720e-005 	
         9.217	  8.700e-002 	             	
         9.248	             	  1.720e-005 	
         9.281	  8.700e-002 	             	
         9.313	             	  1.730e-005 	
         9.377	  8.700e-002 	  1.730e-005 	
         9.441	  8.700e-002 	             	
         9.473	             	  1.740e-005 	
         9.505	  8.700e-002 	             	
         9.537	             	  1.760e-005 	
         9.569	  8.700e-002 	             	
         9.601	             	  1.780e-005 	
         9.633	  8.700e-002 	             	
         9.665	             	  1.800e-005 	
         9.697	  8.700e-002 	             	
         9.729	             	  1.820e-005 	
         9.760	  8.700e-002 	             	
         9.793	             	  1.840e-005 	
         9.825	  8.700e-002 	             	
         9.856	             	  1.850e-005 	
         9.889	  8.700e-002 	             	
         9.921	             	  1.870e-005 	
         9.953	  8.700e-002 	             	
         9.985	             	  1.890e-005 	
        10.017	  8.700e-002 	             	
        10.049	             	  1.900e-005 	
        10.081	  8.700e-002 	             	
        10.113	             	  1.920e-005 	
        10.177	  8.700e-002 	  1.930e-005 	
        10.241	  8.700e-002 	             	
        10.273	             	  1.950e-005 	
        10.305	  8.700e-002 	             	
        10.337	             	  1.960e-005 	
        10.369	  8.700e-002 	             	
        10.401	             	  1.980e-005 	
        10.433	  8.700e-002 	             	
        10.465	             	  1.990e-005 	
        10.497	  8.700e-002 	             	
        10.529	             	  1.990e-005 	
        10.562	  8.700e-002 	             	
        10.593	             	  2.000e-005 	
        10.625	  8.710e-002 	             	
        10.657	             	  2.010e-005 	
        10.689	  8.710e-002 	             	
        10.721	             	  2.030e-005 	
        10.753	  8.710e-002 	             	
        10.785	             	  2.040e-005 	
        10.817	  8.710e-002 	             	
        10.849	             	  2.050e-005 	
        10.913	  8.710e-002 	  2.070e-005 	
        10.978	  8.710e-002 	  2.080e-005 	
        11.041	  8.710e-002 	  2.090e-005 	
        11.105	  8.710e-002 	             	
        11.137	             	  2.090e-005 	
        11.169	  8.710e-002 	             	
        11.201	             	  2.100e-005 	
        11.233	  8.710e-002 	             	
        11.265	             	  2.110e-005 	
        11.297	  8.710e-002 	             	
        11.329	             	  2.110e-005 	
        11.361	  8.710e-002 	             	
        11.393	             	  2.120e-005 	
        11.425	  8.710e-002 	             	
        11.457	             	  2.120e-005 	
        11.489	  8.710e-002 	             	
        11.521	             	  2.120e-005 	
        11.553	  8.710e-002 	             	
        11.585	             	  2.120e-005 	
        11.617	  8.710e-002 	             	
        11.649	             	  2.120e-005 	
        11.680	  8.710e-002 	             	
        11.713	             	  2.130e-005 	
        11.777	  8.700e-002 	  2.140e-005 	
        11.841	  8.700e-002 	  2.150e-005 	
        11.904	  8.700e-002 	             	
        11.936	             	  2.160e-005 	
        11.969	  8.700e-002 	             	
        12.001	             	  2.170e-005 	
        12.033	  8.700e-002 	             	
        12.065	             	  2.170e-005 	
        12.097	  8.700e-002 	             	
        12.128	             	  2.170e-005 	
        12.161	  8.700e-002 	             	
        12.193	             	  2.180e-005 	
        12.225	  8.700e-002 	             	
        12.256	             	  2.180e-005 	
        12.289	  8.700e-002 	             	
        12.321	             	  2.190e-005 	
        12.352	  8.700e-002 	             	
        12.385	             	  2.200e-005 	
        12.417	  8.700e-002 	             	
        12.448	             	  2.210e-005 	
        12.481	  8.700e-002 	             	
        12.513	             	  2.210e-005 	
        12.577	  8.700e-002 	  2.220e-005 	
        12.641	  8.710e-002 	  2.220e-005 	
        12.705	  8.710e-002 	             	
        12.737	             	  2.220e-005 	
        12.769	  8.710e-002 	             	
        12.801	             	  2.230e-005 	
        12.833	  8.710e-002 	             	
        12.865	             	  2.230e-005 	
        12.897	  8.710e-002 	             	
        12.930	             	  2.240e-005 	
        12.961	  8.710e-002 	             	
        12.993	             	  2.250e-005 	
        13.025	  8.710e-002 	             	
        13.057	             	  2.260e-005 	
        13.089	  8.710e-002 	             	
        13.121	             	  2.270e-005 	
        13.153	  8.710e-002 	             	
        13.185	             	  2.280e-005 	
        13.216	  8.700e-002 	             	
        13.249	             	  2.290e-005 	
        13.281	  8.700e-002 	             	
        13.313	             	  2.300e-005 	
        13.377	  8.700e-002 	  2.300e-005 	
        13.441	  8.700e-002 	  2.310e-005 	
        13.505	  8.700e-002 	             	
        13.537	             	  2.320e-005 	
        13.569	  8.700e-002 	             	
        13.601	             	  2.320e-005 	
        13.632	  8.700e-002 	             	
        13.665	             	  2.330e-005 	
        13.696	  8.700e-002 	             	
        13.729	             	  2.330e-005 	
        13.761	  8.700e-002 	             	
        13.793	             	  2.340e-005 	
        13.825	  8.700e-002 	             	
        13.857	             	  2.340e-005 	
        13.888	  8.700e-002 	             	
        13.921	             	  2.340e-005 	
        13.953	  8.700e-002 	             	
        13.985	             	  2.340e-005 	
        14.018	  8.700e-002 	             	
        14.049	             	  2.350e-005 	
        14.080	  8.700e-002 	             	
        14.112	             	  2.360e-005 	
        14.177	  8.700e-002 	  2.360e-005 	
        14.241	  8.700e-002 	  2.380e-005 	
        14.305	  8.700e-002 	             	
        14.337	             	  2.390e-005 	
        14.369	  8.700e-002 	             	
        14.401	             	  2.400e-005 	
        14.433	  8.700e-002 	             	
        14.465	             	  2.410e-005 	
        14.497	  8.700e-002 	             	
        14.529	             	  2.420e-005 	
        14.561	  8.700e-002 	             	
        14.593	             	  2.420e-005 	
        14.625	  8.710e-002 	             	
        14.657	             	  2.420e-005 	
        14.689	  8.710e-002 	             	
        14.721	             	  2.420e-005 	
        14.753	  8.710e-002 	             	
        14.785	             	  2.420e-005 	
        14.816	  8.710e-002 	             	
        14.849	             	  2.420e-005 	
        14.880	  8.710e-002 	             	
